# 128T antennas in miriad (N,E,U) format
265.814 -149.785 377.011
270.188 -95.365 377.285
266.021 -88.512 377.309
258.431 -78.698 377.291
248.452 -86.940 377.339
244.088 -102.325 377.258
242.279 -93.346 377.270
220.271 -148.330 377.214
282.611 -132.939 377.002
275.498 -139.867 377.018
284.854 -123.667 377.050
281.358 -92.889 377.254
282.839 -77.835 377.253
277.563 -83.476 377.300
272.637 -76.988 377.298
289.903 -176.006 376.623
201.546 -23.620 376.805
222.353 -23.802 376.872
235.170 -40.489 376.961
237.518 -54.527 377.123
250.813 -64.851 377.239
259.402 -70.075 377.266
263.676 -60.057 377.180
264.546 -50.676 377.100
271.103 -67.990 377.236
271.905 -60.058 377.204
278.818 -70.885 377.252
273.245 -45.540 377.066
276.268 -53.156 377.090
263.694 -22.659 376.948
284.285 -55.097 377.181
273.870 -14.900 376.910
124.801 -55.560 376.803
-43.377 177.467 375.005
077.005 -21.710 376.351
-80.565 091.809 375.760
-259.929 153.700 376.476
-22.361 -67.582 376.175
-39.873 -118.037 376.054
125.197 -87.516 377.031
217.180 -105.281 377.255
230.162 -98.530 377.260
229.337 -81.845 377.270
238.128 -79.541 377.270
247.002 -75.120 377.255
235.929 -71.017 377.239
228.987 -62.567 377.210
221.885 -50.691 377.078
189.795 -195.980 377.161
095.150 -198.194 377.024
-196.181 -284.457 374.901
-44.022 -388.152 375.372
-15.933 -452.686 375.111
185.187 -468.817 374.752
183.098 -364.524 375.739
266.484 -369.608 375.240
573.207 -160.465 374.773
350.494 -128.046 376.570
294.031 -69.771 377.192
297.259 -78.731 377.196
300.914 -103.941 377.050
288.896 -100.172 377.157
371.152 -395.452 374.515
389.274 -263.547 375.322
203.608 326.141 373.945
193.595 173.425 375.032
292.841 -02.515 376.892
287.469 -46.554 377.115
295.922 -56.141 377.156
351.048 -33.705 376.976
536.159 050.127 376.181
519.141 084.880 376.314
632.503 -518.046 372.604
604.568 -489.943 372.907
415.008 -575.557 373.374
-101.530 -585.675 375.212
142.255 -653.467 374.462
212.168 -685.027 374.236
087.018 -1079.598 377.009
574.527 -1026.074 374.039
1660.732 -333.758 371.068
898.129 -227.151 373.694
781.638 -173.717 374.217
892.005 -256.952 373.492
762.893 -195.018 374.093
731.709 -249.647 373.797
704.326 -300.696 373.514
1088.136 -889.471 370.381
1405.255 716.393 374.602
618.265 288.066 375.134
768.413 238.310 375.805
819.724 227.878 375.748
815.255 061.443 376.001
810.530 -58.874 375.170
950.242 035.224 376.275
1412.363 001.015 373.682
990.227 839.943 372.696
858.632 1177.294 372.122
553.372 1313.611 370.354
244.485 556.122 372.284
359.210 571.541 372.509
424.980 488.857 372.967
539.194 528.598 372.789
652.864 381.069 374.251
151.760 1100.945 369.065
-443.250 1201.132 368.328
-264.594 498.629 373.220
-48.952 301.193 374.618
-38.415 370.648 374.340
-91.152 544.324 372.812
-03.216 506.793 372.803
075.494 523.727 372.613
-1037.748 653.774 371.071
-835.306 442.990 372.251
-505.332 -58.801 372.913
-405.050 037.065 374.034
-357.891 232.842 375.262
-366.453 257.984 375.221
-318.508 325.688 375.029
-306.307 326.101 375.128
-409.060 -412.457 373.969
-420.261 -141.898 373.503
-817.324 -480.270 375.720
-863.782 -575.533 375.522
-638.871 -674.021 375.340
-245.107 -631.403 375.544
-169.362 -633.237 375.616
-257.660 -568.540 375.246
